Oscilloscope Trace Export		
Festo Didactic LVDAC-EMS 3.19		
		
		
		Ch1		Ch2		Ch3		Ch4		Ch5		Ch6		Ch7		Ch8		
Time 		E1		I1		E2		I2		E3		I3		E4		I4		
(ms)		(V)		(A)		(V)		(A)		(V)		(A)		(V)		(A)		
0.000		3.5		0.002		-181.3		-0.006		176.6		0.262		178.7		0.271		
0.098		10.1		0.000		-188.7		-0.013		173.1		0.247		173.5		0.254		
0.195		17.2		0.004		-191.8		-0.004		169.1		0.245		169.1		0.252		
0.293		28.2		-0.004		-192.7		0.002		167.8		0.243		167.0		0.246		
0.391		35.6		0.011		-197.0		-0.008		159.0		0.245		159.6		0.239		
0.488		41.8		0.008		-199.7		-0.004		156.8		0.224		155.7		0.233		
0.586		51.5		0.004		-200.5		0.000		152.9		0.232		151.3		0.220		
0.684		56.8		0.008		-204.1		-0.008		145.9		0.220		147.0		0.209		
0.781		63.8		0.004		-205.4		-0.002		144.6		0.201		143.9		0.216		
0.879		73.0		-0.004		-208.9		0.002		140.6		0.207		137.8		0.197		
0.977		75.7		0.011		-209.7		-0.008		131.9		0.201		134.3		0.190		
1.074		82.3		0.000		-208.4		0.004		131.4		0.194		127.4		0.188		
1.172		87.6		0.008		-211.9		-0.006		128.4		0.177		126.1		0.190		
1.270		93.3		-0.006		-212.8		0.000		120.5		0.182		121.7		0.175		
1.367		99.4		-0.006		-213.2		-0.015		114.8		0.167		117.0		0.171		
1.465		106.5		-0.002		-215.0		-0.006		110.8		0.167		111.3		0.160		
1.563		106.1		0.011		-215.0		-0.008		106.9		0.139		107.8		0.156		
1.660		110.9		0.160		-215.0		0.004		103.8		0.004		110.9		0.165		
1.758		117.1		0.171		-213.7		0.008		98.6		0.006		118.7		0.169		
1.855		120.6		0.188		-215.4		-0.008		92.0		0.002		121.7		0.171		
1.953		127.6		0.194		-215.4		-0.002		85.4		-0.002		127.8		0.177		
2.051		129.8		0.192		-211.9		0.011		85.4		-0.002		128.7		0.188		
2.148		130.7		0.198		-214.6		0.002		77.5		0.002		133.9		0.197		
2.246		136.9		0.200		-215.0		-0.011		75.4		-0.006		136.5		0.209		
2.344		139.9		0.217		-214.6		-0.013		65.7		-0.006		142.2		0.201		
2.441		146.5		0.213		-212.4		-0.002		60.9		-0.006		144.3		0.214		
2.539		147.9		0.219		-211.1		0.000		50.8		0.006		149.1		0.233		
2.637		154.0		0.228		-211.5		0.000		47.8		0.002		151.3		0.229		
2.734		155.8		0.232		-202.7		-0.008		39.0		-0.006		157.8		0.224		
2.832		161.1		0.236		-200.1		0.013		33.3		-0.002		162.6		0.241		
2.930		162.4		0.249		-194.4		0.000		25.8		0.006		167.0		0.246		
3.027		169.0		0.257		-191.8		0.000		18.4		0.002		170.9		0.248		
3.125		175.1		0.251		-186.1		-0.004		10.5		-0.013		172.6		0.244		
3.223		177.3		0.255		-184.3		-0.004		3.5		-0.008		175.7		0.267		
3.320		178.7		0.268		-178.2		0.000		-0.9		-0.004		178.3		0.271		
3.418		184.8		0.276		-173.4		-0.011		-13.1		0.008		181.3		0.267		
3.516		184.8		0.287		-169.9		-0.006		-19.3		-0.011		187.8		0.284		
3.613		190.5		0.270		-164.6		-0.008		-31.1		-0.006		190.4		0.291		
3.711		194.1		0.287		-162.0		0.002		-38.6		0.004		193.9		0.295		
3.809		192.3		0.295		-156.3		-0.015		-42.5		-0.004		195.7		0.286		
3.906		201.1		0.295		-152.8		0.008		-50.8		-0.004		197.8		0.299		
4.004		203.3		0.295		-147.6		-0.019		-57.0		0.000		201.3		0.278		
4.102		204.6		0.293		-141.9		-0.015		-64.0		0.002		201.7		0.303		
4.199		206.4		0.299		-137.5		-0.004		-70.1		-0.008		205.7		0.312		
4.297		205.9		0.312		-134.4		0.002		-75.4		-0.015		207.4		0.314		
4.395		210.3		0.308		-130.9		-0.011		-81.9		0.000		207.8		0.316		
4.492		211.7		0.306		-124.4		0.008		-87.6		-0.002		208.7		0.316		
4.590		209.0		0.308		-122.2		0.002		-94.2		-0.006		208.3		0.308		
4.688		212.5		0.312		-119.1		-0.011		-99.5		0.002		210.4		0.316		
4.785		213.0		0.308		-111.2		-0.002		-105.1		0.000		208.7		0.314		
4.883		213.0		0.306		-107.3		-0.006		-111.3		0.002		209.6		0.308		
4.980		212.5		0.302		-103.8		-0.011		-112.6		-0.004		210.4		0.306		
5.078		214.7		0.316		-97.6		-0.006		-117.0		-0.006		210.9		0.318		
5.176		209.9		0.302		-92.0		-0.004		-122.7		0.000		209.6		0.316		
5.273		216.9		0.302		-85.4		-0.004		-125.7		-0.002		210.4		0.323		
5.371		214.3		0.308		-83.2		0.000		-128.8		0.000		214.8		0.321		
5.469		210.8		0.304		-79.3		-0.017		-135.4		-0.006		210.9		0.314		
5.566		212.5		0.323		-73.1		0.008		-137.1		-0.002		213.0		0.312		
5.664		214.3		0.316		-66.1		-0.002		-141.1		-0.008		209.6		0.310		
5.762		211.2		0.306		-59.1		0.015		-145.9		-0.008		211.7		0.314		
5.859		211.2		0.306		-51.2		-0.008		-147.6		-0.004		210.0		0.303		
5.957		210.8		0.316		-43.8		0.004		-155.5		-0.004		208.3		0.314		
6.055		205.1		0.306		-40.7		-0.006		-160.8		0.002		204.8		0.310		
6.152		202.4		0.299		-32.8		0.000		-163.4		-0.006		200.4		0.291		
6.250		197.6		0.287		-24.1		0.008		-166.9		-0.015		193.5		0.299		
6.348		191.0		0.285		-18.4		-0.002		-169.6		-0.008		192.6		0.280		
6.445		187.0		0.276		-13.6		0.000		-177.0		-0.006		189.1		0.278		
6.543		181.7		0.272		-4.4		-0.002		-176.1		-0.004		180.0		0.269		
6.641		177.3		0.264		3.9		-0.006		-180.5		-0.004		175.2		0.271		
6.738		175.6		0.259		10.1		0.008		-186.2		0.002		174.3		0.265		
6.836		168.5		0.249		17.5		0.002		-190.1		-0.006		171.3		0.244		
6.934		167.2		0.238		28.5		-0.006		-190.6		-0.004		163.9		0.233		
7.031		159.7		0.224		32.8		-0.006		-198.9		0.006		163.0		0.237		
7.129		157.5		0.234		41.2		0.002		-200.2		-0.006		156.1		0.239		
7.227		152.3		0.221		47.3		-0.002		-202.8		-0.004		151.7		0.233		
7.324		147.4		0.221		55.6		0.002		-204.2		0.002		146.5		0.209		
7.422		140.8		0.211		62.6		0.004		-206.8		0.006		142.2		0.222		
7.520		139.1		0.198		67.9		-0.011		-208.5		-0.011		135.7		0.209		
7.617		134.2		0.202		76.6		-0.008		-209.4		0.004		132.6		0.205		
7.715		132.5		0.200		83.6		0.006		-209.9		-0.006		130.0		0.207		
7.813		128.9		0.179		84.9		0.000		-211.6		0.000		126.5		0.188		
7.910		121.0		0.167		92.8		-0.002		-212.0		-0.006		122.2		0.186		
8.008		120.6		0.173		97.6		0.000		-215.6		-0.006		119.6		0.179		
8.105		111.8		0.152		102.5		0.000		-212.9		-0.002		113.0		0.173		
8.203		108.3		0.158		106.4		-0.002		-210.3		0.004		110.0		0.171		
8.301		110.0		0.027		106.0		0.152		-213.4		0.002		107.8		0.160		
8.398		101.2		-0.002		117.4		0.167		-210.7		0.006		115.7		0.177		
8.496		93.7		0.006		117.8		0.177		-211.6		0.008		119.6		0.177		
8.594		91.5		-0.002		124.8		0.186		-211.6		0.004		127.0		0.175		
8.691		84.9		0.000		130.9		0.203		-216.9		-0.004		127.8		0.188		
8.789		81.0		-0.004		133.1		0.203		-215.1		0.008		132.2		0.190		
8.887		77.4		-0.011		134.4		0.203		-215.1		0.004		136.1		0.203		
8.984		68.6		-0.006		138.8		0.205		-212.0		0.002		140.4		0.214		
9.082		64.2		0.000		143.2		0.205		-213.8		0.000		144.3		0.220		
9.180		57.2		-0.008		144.5		0.215		-213.8		-0.002		145.7		0.218		
9.277		49.7		0.000		149.8		0.234		-212.9		-0.017		149.6		0.231		
9.375		39.2		0.002		153.7		0.228		-209.0		-0.019		155.2		0.235		
9.473		36.5		0.000		161.6		0.234		-206.8		-0.006		160.4		0.246		
9.570		29.5		-0.006		162.5		0.241		-201.1		0.011		165.7		0.250		
9.668		20.7		0.000		168.1		0.239		-198.0		-0.006		164.3		0.250		
9.766		16.3		-0.004		171.6		0.253		-193.2		-0.011		171.7		0.237		
9.863		7.5		-0.004		176.9		0.268		-187.5		0.004		176.5		0.261		
9.961		0.0		-0.013		178.7		0.268		-183.1		0.000		180.4		0.265		
10.059		-11.0		0.002		183.5		0.262		-177.4		-0.013		184.3		0.276		
10.156		-16.3		-0.011		187.4		0.277		-173.1		-0.002		190.9		0.267		
10.254		-23.8		-0.006		191.8		0.285		-165.6		-0.002		189.1		0.284		
10.352		-32.6		-0.002		196.6		0.289		-162.5		-0.013		195.2		0.288		
10.449		-37.4		-0.006		197.5		0.291		-158.2		0.002		197.8		0.295		
10.547		-47.1		-0.017		197.5		0.289		-156.8		0.002		200.0		0.297		
10.645		-52.4		-0.004		201.9		0.306		-151.2		-0.013		200.0		0.299		
10.742		-59.8		-0.004		202.3		0.298		-147.2		0.004		203.5		0.295		
10.840		-68.6		-0.002		204.9		0.310		-141.9		0.002		205.7		0.306		
10.938		-74.8		0.004		208.9		0.306		-137.6		-0.002		206.1		0.303		
11.035		-82.7		0.000		209.3		0.306		-130.6		-0.008		206.1		0.310		
11.133		-88.0		0.000		212.4		0.310		-128.8		0.006		212.2		0.314		
11.230		-90.2		0.000		207.6		0.310		-124.9		-0.002		208.7		0.316		
11.328		-98.1		-0.021		210.2		0.315		-120.0		0.002		210.9		0.316		
11.426		-102.5		-0.011		212.4		0.308		-113.9		-0.002		209.6		0.310		
11.523		-108.7		0.000		211.1		0.319		-106.9		-0.006		211.3		0.314		
11.621		-111.3		0.002		211.1		0.331		-103.8		-0.004		213.9		0.318		
11.719		-115.7		0.002		213.7		0.315		-97.7		-0.017		210.0		0.318		
11.816		-120.6		-0.004		213.7		0.302		-94.2		-0.006		214.8		0.306		
11.914		-125.9		-0.011		212.8		0.317		-88.5		0.000		210.9		0.318		
12.012		-128.9		-0.013		211.1		0.308		-86.3		-0.011		215.7		0.310		
12.109		-135.1		-0.004		214.1		0.312		-79.3		-0.006		212.6		0.310		
12.207		-134.7		0.000		212.4		0.315		-77.5		-0.006		213.0		0.314		
12.305		-142.1		-0.004		211.1		0.321		-72.3		-0.011		211.7		0.318		
12.402		-144.3		-0.002		210.2		0.306		-65.7		-0.017		211.7		0.303		
12.500		-150.1		-0.019		208.4		0.317		-55.6		-0.008		208.7		0.318		
12.598		-150.9		0.008		208.4		0.321		-49.9		-0.002		207.4		0.310		
12.695		-156.7		0.002		204.5		0.300		-41.2		-0.004		207.0		0.306		
12.793		-159.7		-0.006		202.7		0.304		-34.6		-0.006		202.2		0.297		
12.891		-164.1		-0.004		198.8		0.283		-27.2		-0.002		196.5		0.286		
12.988		-168.1		-0.008		191.4		0.283		-22.8		0.002		192.6		0.284		
13.086		-171.2		0.002		184.8		0.287		-14.9		-0.006		187.4		0.282		
13.184		-178.7		-0.023		182.6		0.268		-9.2		-0.004		181.3		0.276		
13.281		-176.9		0.002		177.8		0.274		-3.5		-0.002		177.0		0.267		
13.379		-181.7		-0.002		175.2		0.241		7.0		0.000		170.4		0.265		
13.477		-187.5		0.002		170.8		0.251		18.4		-0.013		171.3		0.256		
13.574		-191.0		-0.002		166.0		0.247		24.5		0.004		163.9		0.250		
13.672		-192.3		-0.008		159.8		0.239		32.4		-0.006		163.0		0.241		
13.770		-195.8		-0.002		157.6		0.236		40.3		0.002		157.4		0.235		
13.867		-194.9		-0.013		155.0		0.236		46.0		0.000		154.8		0.226		
13.965		-197.1		-0.002		148.0		0.211		52.6		-0.011		146.5		0.218		
14.063		-203.3		-0.008		144.5		0.209		58.3		0.011		145.2		0.212		
14.160		-205.9		0.002		138.4		0.198		63.5		0.000		137.0		0.218		
14.258		-205.5		-0.008		132.7		0.196		71.0		0.004		133.0		0.201		
14.355		-208.6		0.002		129.2		0.188		78.9		0.008		132.2		0.197		
14.453		-209.9		-0.004		127.0		0.177		86.3		0.006		129.6		0.190		
14.551		-212.5		0.002		120.0		0.182		93.3		-0.006		120.0		0.177		
14.648		-210.3		0.002		118.7		0.173		95.9		-0.011		119.6		0.175		
14.746		-210.8		-0.004		116.9		0.175		102.5		0.000		112.6		0.169		
14.844		-212.5		-0.019		105.1		0.150		108.2		-0.008		107.0		0.171		
14.941		-212.1		0.002		106.0		0.042		108.2		0.129		107.0		0.169		
15.039		-214.7		-0.011		99.0		-0.015		110.8		0.173		113.0		0.169		
15.137		-211.7		-0.002		93.7		-0.004		117.4		0.177		120.0		0.175		
15.234		-214.3		-0.008		89.3		0.004		124.9		0.177		121.7		0.186		
15.332		-211.7		-0.015		80.6		0.013		127.5		0.199		126.5		0.197		
15.430		-211.2		0.000		77.9		0.006		131.9		0.192		130.4		0.199		
15.527		-212.1		-0.004		71.4		0.004		133.6		0.199		135.2		0.194		
15.625		-213.4		0.000		68.3		0.011		135.4		0.194		139.6		0.218		
15.723		-212.1		0.000		61.3		-0.008		139.8		0.213		145.2		0.220		
15.820		-210.3		-0.017		53.0		0.004		149.8		0.222		147.0		0.214		
15.918		-209.5		-0.002		46.0		0.004		152.0		0.226		153.5		0.237		
16.016		-205.5		0.006		38.1		0.000		153.8		0.232		156.1		0.231		
16.113		-202.0		-0.002		33.3		-0.002		160.4		0.237		158.3		0.235		
16.211		-199.8		-0.002		25.4		-0.002		162.5		0.243		163.9		0.235		
16.309		-193.2		-0.006		19.3		0.015		172.2		0.245		167.4		0.259		
16.406		-188.8		-0.002		14.0		-0.006		170.9		0.256		171.3		0.244		
16.504		-183.1		-0.006		6.6		0.006		179.6		0.249		179.1		0.263		
16.602		-180.4		-0.002		0.0		0.006		180.9		0.262		180.0		0.267		
16.699		-176.9		-0.002		-10.1		-0.006		185.8		0.277		185.7		0.276		
16.797		-173.4		-0.015		-19.7		-0.011		186.6		0.279		190.0		0.284		
16.895		-168.5		-0.002		-24.5		-0.008		190.1		0.285		193.0		0.295		
16.992		-162.8		-0.011		-32.4		-0.002		191.9		0.279		191.3		0.271		
17.090		-161.1		-0.011		-40.3		-0.019		194.1		0.289		193.9		0.293		
17.188		-152.7		-0.013		-48.2		0.000		199.8		0.300		198.3		0.293		
17.285		-149.2		-0.008		-54.7		-0.008		199.8		0.300		200.9		0.303		
17.383		-143.9		-0.002		-59.1		-0.011		202.8		0.304		201.3		0.310		
17.480		-138.2		-0.004		-64.8		0.006		209.0		0.310		207.8		0.310		
17.578		-139.5		-0.004		-73.6		-0.008		204.2		0.310		207.8		0.303		
17.676		-132.0		-0.004		-79.7		-0.006		207.2		0.313		210.4		0.312		
17.773		-128.5		0.011		-84.1		0.006		210.7		0.317		210.4		0.310		
17.871		-124.5		0.000		-92.0		0.004		211.2		0.317		211.7		0.314		
17.969		-116.6		-0.006		-99.8		-0.004		211.6		0.317		210.0		0.310		
18.066		-114.0		-0.006		-105.1		0.006		214.2		0.300		212.6		0.316		
18.164		-108.7		-0.008		-108.2		0.002		210.3		0.310		210.9		0.306		
18.262		-106.1		-0.002		-112.1		-0.004		211.6		0.302		215.2		0.321		
18.359		-99.9		-0.011		-117.4		-0.013		211.6		0.319		213.0		0.312		
18.457		-93.7		-0.002		-119.1		-0.002		218.6		0.310		213.5		0.321		
18.555		-91.1		-0.011		-124.8		-0.008		213.4		0.315		214.3		0.308		
18.652		-83.6		-0.015		-130.0		-0.008		209.9		0.319		214.8		0.331		
18.750		-80.5		-0.015		-136.6		0.006		212.5		0.313		211.7		0.316		
18.848		-75.7		0.000		-137.9		-0.008		214.7		0.315		214.3		0.314		
18.945		-70.8		-0.017		-141.4		0.002		214.2		0.315		212.2		0.329		
19.043		-64.7		-0.013		-145.8		-0.004		214.7		0.319		212.2		0.316		
19.141		-60.7		0.004		-147.6		0.006		213.8		0.313		209.6		0.325		
19.238		-51.9		-0.006		-149.3		-0.008		206.8		0.315		209.6		0.321		
19.336		-44.4		-0.011		-153.7		-0.004		210.3		0.315		209.6		0.316		
19.434		-37.4		-0.004		-158.5		-0.013		202.0		0.306		206.5		0.310		
19.531		-27.7		-0.006		-162.9		0.002		202.4		0.294		202.6		0.303		
19.629		-21.1		-0.015		-170.3		-0.002		195.4		0.302		200.9		0.288		
19.727		-15.0		-0.011		-174.7		-0.002		192.8		0.287		193.5		0.276		
19.824		-10.1		-0.002		-174.3		0.004		184.9		0.275		188.3		0.284		
19.922		-0.9		0.002		-177.8		-0.004		183.6		0.268		181.3		0.263		
20.020		5.7		0.000		-180.0		-0.006		173.1		0.264		177.4		0.254		
20.117		15.4		-0.008		-187.4		0.000		173.9		0.258		172.2		0.241		
20.215		23.3		-0.006		-188.3		-0.015		165.2		0.239		167.0		0.231		
20.313		30.4		-0.019		-194.9		-0.004		163.4		0.234		161.3		0.229		
20.410		35.6		0.004		-197.9		0.006		160.4		0.222		159.1		0.239		
20.508		43.6		-0.011		-200.1		0.006		155.1		0.224		157.8		0.231		
20.605		50.2		0.002		-203.6		-0.011		149.4		0.224		152.6		0.229		
20.703		59.4		-0.004		-204.1		-0.002		145.0		0.222		145.2		0.212		
20.801		63.8		-0.002		-204.9		-0.013		139.8		0.207		140.9		0.216		
20.898		75.7		0.015		-209.7		-0.002		137.6		0.205		137.0		0.205		
20.996		78.3		-0.011		-210.2		-0.011		132.3		0.194		133.0		0.186		
21.094		87.1		-0.004		-211.1		0.002		130.1		0.192		127.8		0.188		
21.191		92.8		-0.015		-214.6		0.000		123.5		0.184		125.2		0.186		
21.289		96.4		-0.004		-212.8		0.000		119.2		0.177		117.8		0.186		
21.387		102.1		-0.006		-215.4		0.011		113.0		0.175		113.0		0.162		
21.484		106.9		-0.002		-215.4		0.002		109.1		0.156		110.9		0.169		
21.582		106.5		0.067		-213.7		0.000		106.9		0.068		107.8		0.158		
21.680		112.7		0.183		-213.7		-0.011		100.8		-0.006		114.8		0.167		
21.777		117.9		0.175		-214.1		0.011		98.1		0.004		117.0		0.194		
21.875		121.9		0.186		-217.2		0.000		91.6		-0.004		126.1		0.188		
21.973		128.9		0.194		-214.1		0.000		87.2		0.015		127.8		0.177		
22.070		129.8		0.194		-215.9		-0.006		81.1		-0.011		130.9		0.188		
22.168		134.2		0.194		-214.1		-0.006		77.1		0.004		134.8		0.197		
22.266		137.7		0.213		-215.9		0.006		73.6		0.011		139.6		0.203		
22.363		143.0		0.213		-211.9		-0.015		65.7		-0.002		140.4		0.216		
22.461		147.4		0.213		-212.4		0.000		59.1		-0.004		144.8		0.205		
22.559		148.7		0.224		-210.6		-0.008		51.7		0.006		150.9		0.220		
22.656		153.6		0.228		-205.8		-0.008		43.4		-0.006		151.7		0.224		
22.754		157.5		0.245		-204.9		0.000		38.1		-0.013		158.7		0.235		
22.852		160.6		0.234		-198.4		-0.008		30.2		0.000		161.3		0.250		
22.949		167.2		0.245		-194.9		-0.011		22.8		-0.002		167.4		0.252		
23.047		171.6		0.249		-189.2		-0.002		16.2		0.006		168.7		0.250		
23.145		173.4		0.264		-184.8		-0.017		7.4		-0.015		173.9		0.256		
23.242		178.2		0.261		-183.9		-0.015		2.2		0.004		182.2		0.274		
23.340		180.0		0.272		-176.0		-0.002		-5.3		-0.006		179.1		0.276		
23.438		185.7		0.272		-172.1		-0.006		-15.8		0.006		186.1		0.274		
23.535		188.3		0.268		-169.9		-0.006		-21.0		0.006		188.3		0.288		
23.633		190.5		0.274		-163.3		-0.011		-31.1		-0.006		190.0		0.278		
23.730		194.5		0.272		-158.1		0.004		-39.4		0.000		196.1		0.288		
23.828		195.4		0.289		-155.4		0.004		-46.9		-0.002		196.1		0.301		
23.926		199.3		0.297		-149.8		-0.004		-51.7		-0.002		200.0		0.301		
24.023		201.5		0.295		-143.6		-0.011		-57.8		0.002		206.1		0.291		
24.121		202.9		0.289		-141.9		-0.011		-66.6		-0.011		203.0		0.318		
24.219		203.7		0.314		-135.7		-0.013		-71.4		0.008		208.7		0.306		
24.316		205.9		0.306		-132.2		-0.004		-78.4		-0.015		207.8		0.299		
24.414		210.3		0.316		-131.8		-0.004		-84.1		0.011		210.4		0.303		
24.512		210.8		0.299		-124.4		-0.008		-91.6		-0.017		207.8		0.306		
24.609		207.7		0.312		-121.3		-0.015		-97.3		-0.006		211.7		0.310		
24.707		209.9		0.318		-116.5		-0.011		-101.2		0.002		210.4		0.318		
24.805		211.7		0.304		-110.8		-0.013		-104.7		-0.011		210.9		0.314		
24.902		212.1		0.325		-105.5		0.002		-107.8		0.004		207.4		0.310		
25.000		210.8		0.314		-102.9		0.000		-114.8		-0.006		216.1		0.318		
25.098		213.0		0.310		-95.0		0.000		-122.2		-0.004		213.5		0.318		
25.195		214.3		0.314		-90.6		-0.013		-124.0		0.002		211.7		0.310		
25.293		207.7		0.314		-84.1		-0.013		-128.8		0.002		210.4		0.314		
25.391		213.4		0.318		-80.6		0.008		-128.4		-0.008		213.9		0.310		
25.488		209.9		0.312		-75.3		0.015		-134.1		0.000		210.0		0.308		
25.586		212.5		0.325		-70.5		0.000		-136.3		0.000		212.6		0.306		
25.684		209.5		0.318		-66.6		0.013		-139.8		-0.011		210.9		0.308		
25.781		212.1		0.312		-56.0		-0.015		-147.6		0.011		210.9		0.310		
25.879		209.0		0.299		-53.0		-0.013		-150.7		0.000		207.8		0.314		
25.977		208.1		0.308		-45.1		-0.002		-156.0		-0.004		208.7		0.308		
26.074		202.4		0.302		-35.5		-0.017		-162.5		-0.008		205.2		0.303		
26.172		199.3		0.285		-29.8		-0.011		-163.4		-0.011		197.4		0.295		
26.270		196.7		0.302		-23.6		-0.019		-170.4		-0.004		197.0		0.282		
26.367		190.1		0.283		-16.2		0.006		-171.7		-0.008		188.3		0.276		
26.465		189.7		0.274		-8.3		0.002		-176.6		0.002		183.9		0.276		
26.563		182.2		0.266		-2.2		-0.015		-183.1		-0.008		180.9		0.271		
26.660		178.2		0.253		6.1		-0.002		-186.2		0.004		173.0		0.265		
26.758		173.8		0.259		14.0		-0.002		-190.1		-0.004		171.7		0.256		
26.855		168.1		0.249		21.0		-0.002		-192.8		-0.006		168.3		0.252		
26.953		167.2		0.236		28.9		0.006		-195.0		-0.011		163.0		0.235		
27.051		160.2		0.226		34.2		0.006		-197.6		-0.013		160.0		0.229		
27.148		155.3		0.232		41.6		0.008		-199.3		-0.015		156.5		0.237		
27.246		151.4		0.221		49.0		0.000		-201.5		0.006		153.5		0.233		
27.344		150.1		0.217		56.5		0.006		-202.4		-0.021		146.1		0.231		
27.441		141.7		0.213		63.5		0.004		-204.6		0.000		142.2		0.207		
27.539		139.5		0.209		71.4		-0.006		-207.7		0.002		137.8		0.203		
27.637		133.3		0.196		81.4		0.006		-210.7		-0.004		135.2		0.199		
27.734		132.0		0.192		84.1		0.004		-209.9		-0.004		129.6		0.192		
27.832		125.9		0.179		87.1		-0.002		-212.9		0.000		123.9		0.179		
27.930		123.2		0.171		92.8		0.004		-210.7		-0.002		118.7		0.173		
28.027		116.2		0.175		100.7		0.006		-212.9		-0.006		114.8		0.162		
28.125		112.7		0.162		102.5		-0.002		-216.4		0.006		109.6		0.152		
28.223		106.9		0.139		104.7		0.021		-213.4		0.000		106.5		0.145		
28.320		104.7		-0.011		109.5		0.177		-212.9		-0.017		112.6		0.165		
28.418		99.0		0.002		117.8		0.160		-215.6		-0.017		117.4		0.177		
28.516		93.3		-0.002		123.9		0.190		-215.6		-0.002		122.2		0.177		
